Nov. 18, 2022   11:57:41
A.C. Impedance
File: c:\users\electrochemistry\desktop\hanane - copy\2022-11-18\4gl-1_b.txt
Data Source:  Experiment
Instrument Model:  CHI660E
Header: 
Note: 

Init E (V) = 0
High Frequency (Hz) = 1e+6
Low Frequency (Hz) = 1
Imp SF
Amplitude (V) = 0.01
Quiet Time (sec) = 2

Freq/Hz, Z'/ohm, Z"/ohm, Z/ohm, Phase/deg

9.990e+5, 1.784e+3, -1.897e+2, 1.794e+3, -6.1
8.252e+5, 1.888e+3, -1.539e+2, 1.894e+3, -4.7
6.816e+5, 1.933e+3, -1.669e+2, 1.940e+3, -4.9
5.625e+5, 1.951e+3, -1.368e+2, 1.956e+3, -4.0
4.639e+5, 1.985e+3, -1.412e+2, 1.990e+3, -4.1
3.828e+5, 2.027e+3, -1.250e+2, 2.030e+3, -3.5
3.164e+5, 2.042e+3, -1.174e+2, 2.046e+3, -3.3
2.607e+5, 2.053e+3, -1.116e+2, 2.056e+3, -3.1
2.158e+5, 2.062e+3, -1.091e+2, 2.065e+3, -3.0
1.777e+5, 2.069e+3, -1.096e+2, 2.071e+3, -3.0
1.465e+5, 2.082e+3, -1.262e+2, 2.086e+3, -3.5
1.211e+5, 2.079e+3, -1.193e+2, 2.082e+3, -3.3
9.961e+4, 2.077e+3, -9.399e+1, 2.080e+3, -2.6
8.252e+4, 2.087e+3, -1.107e+2, 2.089e+3, -3.0
6.812e+4, 2.095e+3, -1.338e+2, 2.099e+3, -3.7
5.625e+4, 2.104e+3, -1.594e+2, 2.110e+3, -4.3
4.644e+4, 2.115e+3, -1.873e+2, 2.123e+3, -5.1
3.833e+4, 2.126e+3, -2.195e+2, 2.137e+3, -5.9
3.164e+4, 2.140e+3, -2.554e+2, 2.155e+3, -6.8
2.612e+4, 2.156e+3, -2.960e+2, 2.176e+3, -7.8
2.153e+4, 2.173e+3, -3.409e+2, 2.200e+3, -8.9
1.777e+4, 2.193e+3, -3.932e+2, 2.228e+3, -10.2
1.470e+4, 2.212e+3, -4.519e+2, 2.258e+3, -11.5
1.211e+4, 2.237e+3, -5.230e+2, 2.297e+3, -13.2
1.001e+4, 2.260e+3, -6.040e+2, 2.340e+3, -15.0
8.252e+3, 2.286e+3, -6.893e+2, 2.388e+3, -16.8
6.812e+3, 2.313e+3, -8.053e+2, 2.449e+3, -19.2
5.625e+3, 2.342e+3, -9.421e+2, 2.525e+3, -21.9
4.643e+3, 2.378e+3, -1.103e+3, 2.621e+3, -24.9
3.833e+3, 2.415e+3, -1.299e+3, 2.742e+3, -28.3
3.164e+3, 2.459e+3, -1.531e+3, 2.897e+3, -31.9
2.612e+3, 2.512e+3, -1.809e+3, 3.095e+3, -35.8
2.153e+3, 2.574e+3, -2.140e+3, 3.348e+3, -39.7
1.777e+3, 2.652e+3, -2.531e+3, 3.666e+3, -43.7
1.470e+3, 2.743e+3, -2.989e+3, 4.057e+3, -47.5
1.211e+3, 2.858e+3, -3.536e+3, 4.546e+3, -51.1
1.001e+3, 2.994e+3, -4.170e+3, 5.133e+3, -54.3
8.252e+2, 3.188e+3, -4.902e+3, 5.848e+3, -57.0
6.836e+2, 3.382e+3, -5.780e+3, 6.697e+3, -59.7
5.615e+2, 3.753e+3, -6.786e+3, 7.755e+3, -61.1
4.639e+2, 4.039e+3, -8.029e+3, 8.987e+3, -63.3
3.809e+2, 4.399e+3, -9.535e+3, 1.050e+4, -65.2
3.174e+2, 4.801e+3, -1.114e+4, 1.213e+4, -66.7
2.588e+2, 5.334e+3, -1.328e+4, 1.431e+4, -68.1
2.148e+2, 5.925e+3, -1.558e+4, 1.667e+4, -69.2
1.758e+2, 6.710e+3, -1.846e+4, 1.964e+4, -70.0
1.465e+2, 7.555e+3, -2.153e+4, 2.282e+4, -70.7
1.221e+2, 8.575e+3, -2.506e+4, 2.648e+4, -71.1
9.766e+1, 1.020e+4, -3.013e+4, 3.181e+4, -71.3
8.254e+1, 1.193e+4, -3.451e+4, 3.652e+4, -70.9
6.813e+1, 1.384e+4, -4.056e+4, 4.286e+4, -71.2
5.623e+1, 1.616e+4, -4.747e+4, 5.014e+4, -71.2
4.642e+1, 1.891e+4, -5.554e+4, 5.867e+4, -71.2
3.831e+1, 2.236e+4, -6.511e+4, 6.884e+4, -71.0
3.162e+1, 2.653e+4, -7.608e+4, 8.057e+4, -70.8
2.610e+1, 3.158e+4, -8.868e+4, 9.413e+4, -70.4
2.154e+1, 3.780e+4, -1.033e+5, 1.100e+5, -69.9
1.778e+1, 4.530e+4, -1.196e+5, 1.279e+5, -69.3
1.468e+1, 5.435e+4, -1.388e+5, 1.490e+5, -68.6
1.212e+1, 6.605e+4, -1.606e+5, 1.736e+5, -67.6
1.000e+1, 7.970e+4, -1.848e+5, 2.013e+5, -66.7
8.254e+0, 9.710e+4, -2.098e+5, 2.311e+5, -65.2
6.813e+0, 1.170e+5, -2.384e+5, 2.655e+5, -63.9
5.623e+0, 1.406e+5, -2.725e+5, 3.066e+5, -62.7
4.642e+0, 1.697e+5, -3.105e+5, 3.539e+5, -61.3
3.831e+0, 2.063e+5, -3.541e+5, 4.098e+5, -59.8
3.162e+0, 2.520e+5, -4.030e+5, 4.753e+5, -58.0
2.610e+0, 3.027e+5, -4.371e+5, 5.317e+5, -55.3
2.154e+0, 3.722e+5, -4.908e+5, 6.160e+5, -52.8
1.778e+0, 4.417e+5, -5.369e+5, 6.952e+5, -50.6
1.468e+0, 5.376e+5, -5.891e+5, 7.975e+5, -47.6
1.212e+0, 6.105e+5, -6.607e+5, 8.996e+5, -47.3
1.000e+0, 7.189e+5, -6.245e+5, 9.522e+5, -41.0
